100
Detector Model: 818E
Detector SN: 194976
IDN: NEWPORT 1918-R v1.0.0 01/07/11 13098
Wavelength: 532
Attenuator Status: Off
Range Mode: Auto
Store Interval: 1
Analog Filter: 12.5kHz
Digital Filter: 0
Mode: Pulse Continuous
Responsivity: 9.595313E+001
Units: J
End of Header
1.912412E-004
2.147167E-004
20
2.147167E-004
2.176773E-004
1.977483E-004
1.923489E-004
1.876651E-004
1.967774E-004
2.032034E-004
2.248306E-004
2.082310E-004
2.212875E-004
2.046868E-004
1.977313E-004
1.968550E-004
2.063344E-004
1.988668E-004
2.027993E-004
2.038921E-004
1.751366E-004
1.972989E-004
1.754163E-004
2.191891E-004
2.069290E-004
1.944935E-004
1.937921E-004
1.894123E-004
2.111799E-004
2.129834E-004
2.054711E-004
1.851776E-004
2.310439E-004
2.092934E-004
1.951959E-004
1.831895E-004
2.005934E-004
1.648797E-004
2.083736E-004
1.916288E-004
2.011189E-004
2.014940E-004
2.162266E-004
1.797159E-004
1.800542E-004
1.750998E-004
2.130138E-004
1.757808E-004
1.792566E-004
1.850237E-004
2.006720E-004
2.221615E-004
2.083151E-004
1.909348E-004
2.103601E-004
1.993753E-004
2.007031E-004
1.823101E-004
2.062472E-004
1.886415E-004
2.046361E-004
1.956733E-004
1.963547E-004
2.116815E-004
2.119558E-004
1.963888E-004
1.968006E-004
1.739746E-004
2.029089E-004
1.846363E-004
1.958475E-004
1.842673E-004
2.023957E-004
1.907747E-004
1.967452E-004
2.023045E-004
2.072775E-004
1.876100E-004
1.998562E-004
2.156280E-004
1.984483E-004
2.129768E-004
2.075424E-004
2.264537E-004
2.103824E-004
2.190217E-004
2.140327E-004
2.074972E-004
2.375198E-004
1.975722E-004
2.026784E-004
2.124201E-004
2.366300E-004
2.076661E-004
1.973081E-004
2.097817E-004
1.882731E-004
2.233374E-004
1.753155E-004
End of Data
